Wavelength (nm)	% Transmission
270	0.00366250
270.2	0.00363120
270.4	0.00360030
270.6	0.00356950
270.8	0.00353910
271	0.00350890
271.2	0.00347890
271.4	0.00344920
271.6	0.00341980
271.8	0.00339060
272	0.00336170
272.2	0.00333300
272.4	0.00330710
272.6	0.00328970
272.8	0.00327240
273	0.00325510
273.2	0.00323800
273.4	0.00322100
273.6	0.00320400
273.8	0.00318720
274	0.00317040
274.2	0.00315370
274.4	0.00313710
274.6	0.00312060
274.8	0.00310420
275	0.00308780
275.2	0.00224120
275.4	0.00162670
275.6	0.00132030
275.8	0.00124650
276	0.00117680
276.2	0.00111110
276.4	0.00104900
276.6	0.00099036
276.8	0.00093501
277	0.00088276
277.2	0.00083343
277.4	0.00078686
277.6	0.00074289
277.8	0.00070137
278	0.00066218
278.2	0.00062518
278.4	0.00059024
278.6	0.00056306
278.8	0.00058406
279	0.00060584
279.2	0.00062844
279.4	0.00065188
279.6	0.00067619
279.8	0.00070141
280	0.00072757
280.2	0.00075471
280.4	0.00078286
280.6	0.00081206
280.8	0.00084235
281	0.00087377
281.2	0.00090636
281.4	0.00094016
281.6	0.00097523
281.8	0.00099990
282	0.00102210
282.2	0.00104480
282.4	0.00106810
282.6	0.00109180
282.8	0.00111610
283	0.00114090
283.2	0.00116620
283.4	0.00119220
283.6	0.00121870
283.8	0.00124570
284	0.00127340
284.2	0.00130170
284.4	0.00133070
284.6	0.00136030
284.8	0.00132510
285	0.00122770
285.2	0.00113750
285.4	0.00105390
285.6	0.00097650
285.8	0.00090475
286	0.00083827
286.2	0.00077668
286.4	0.00071961
286.6	0.00066674
286.8	0.00061775
287	0.00057236
287.2	0.00053030
287.4	0.00049134
287.6	0.00045523
287.8	0.00043245
288	0.00045858
288.2	0.00048629
288.4	0.00051568
288.6	0.00054684
288.8	0.00057989
289	0.00061493
289.2	0.00065209
289.4	0.00069149
289.6	0.00073327
289.8	0.00077758
290	0.00082457
290.2	0.00087440
290.4	0.00092724
290.6	0.00098327
290.8	0.00104270
291	0.00100450
291.2	0.00095630
291.4	0.00091041
291.6	0.00086672
291.8	0.00082513
292	0.00078553
292.2	0.00074784
292.4	0.00071195
292.6	0.00067779
292.8	0.00064526
293	0.00061430
293.2	0.00058482
293.4	0.00055676
293.6	0.00053004
293.8	0.00050461
294	0.00050235
294.2	0.00051523
294.4	0.00052844
294.6	0.00054198
294.8	0.00055588
295	0.00057012
295.2	0.00055034
295.4	0.00053125
295.6	0.00051281
295.8	0.00049502
296	0.00047784
296.2	0.00046126
296.4	0.00044526
296.6	0.00042981
296.8	0.00041490
297	0.00040050
297.2	0.00038804
297.4	0.00039236
297.6	0.00039673
297.8	0.00040114
298	0.00040561
298.2	0.00041012
298.4	0.00041469
298.6	0.00041930
298.8	0.00042397
299	0.00042869
299.2	0.00043346
299.4	0.00043828
299.6	0.00044316
299.8	0.00044809
300	0.00045308
300.2	0.00045813
300.4	0.00044450
300.6	0.00042658
300.8	0.00040938
301	0.00039287
301.2	0.00037703
301.4	0.00036183
301.6	0.00034724
301.8	0.00033324
302	0.00031980
302.2	0.00030690
302.4	0.00029453
302.6	0.00028265
302.8	0.00027126
303	0.00026032
303.2	0.00024982
303.4	0.00025531
303.6	0.00027752
303.8	0.00030165
304	0.00032789
304.2	0.00035641
304.4	0.00038740
304.6	0.00042110
304.8	0.00045772
305	0.00049753
305.2	0.00073355
305.4	0.00073305
305.6	0.00073254
305.8	0.00073204
306	0.00073153
306.2	0.00073103
306.4	0.00073053
306.6	0.00073003
306.8	0.00072952
307	0.00072902
307.2	0.00072852
307.4	0.00072802
307.6	0.00072752
307.8	0.00072701
308	0.00072651
308.2	0.00072650
308.4	0.00073027
308.6	0.00073406
308.8	0.00073787
309	0.00074170
309.2	0.00074555
309.4	0.00074942
309.6	0.00075330
309.8	0.00075721
310	0.00076114
310.2	0.00076509
310.4	0.00076906
310.6	0.00077305
310.8	0.00077706
311	0.00078109
311.2	0.00078515
311.4	0.00078486
311.6	0.00078341
311.8	0.00078197
312	0.00078053
312.2	0.00077910
312.4	0.00077766
312.6	0.00077623
312.8	0.00077480
313	0.00077338
313.2	0.00077196
313.4	0.00077054
313.6	0.00076912
313.8	0.00076770
314	0.00076629
314.2	0.00076488
314.4	0.00077186
314.6	0.00078856
314.8	0.00080563
315	0.00082306
315.2	0.00084087
315.4	0.00085906
315.6	0.00087765
315.8	0.00089664
316	0.00091604
316.2	0.00093586
316.4	0.00095611
316.6	0.00097680
316.8	0.00099794
317	0.00101950
317.2	0.00104160
317.4	0.00106650
317.6	0.00110550
317.8	0.00114590
318	0.00118780
318.2	0.00123120
318.4	0.00127620
318.6	0.00132280
318.8	0.00137110
319	0.00142120
319.2	0.00147320
319.4	0.00152700
319.6	0.00158280
319.8	0.00164060
320	0.00170060
320.2	0.00176270
320.4	0.00182720
320.6	0.00190460
320.8	0.00198730
321	0.00207370
321.2	0.00216380
321.4	0.00225780
321.6	0.00235590
321.8	0.00245820
322	0.00256500
322.2	0.00267640
322.4	0.00279270
322.6	0.00291410
322.8	0.00304070
323	0.00317280
323.2	0.00331060
323.4	0.00345440
323.6	0.00349460
323.8	0.00344320
324	0.00339260
324.2	0.00334270
324.4	0.00329350
324.6	0.00324510
324.8	0.00319740
325	0.00315030
325.2	0.00310400
325.4	0.00305840
325.6	0.00301340
325.8	0.00296910
326	0.00292540
326.2	0.00288240
326.4	0.00284000
326.6	0.00275510
326.8	0.00254470
327	0.00235030
327.2	0.00217070
327.4	0.00200490
327.6	0.00185180
327.8	0.00171030
328	0.00157960
328.2	0.00145900
328.4	0.00134750
328.6	0.00124460
328.8	0.00114950
329	0.00106170
329.2	0.00098059
329.4	0.00090569
329.6	0.00083650
329.8	0.00079031
330	0.00074757
330.2	0.00070713
330.4	0.00066889
330.6	0.00063271
330.8	0.00059849
331	0.00056612
331.2	0.00053550
331.4	0.00050654
331.6	0.00047914
331.8	0.00045323
332	0.00042871
332.2	0.00040553
332.4	0.00038359
332.6	0.00036285
332.8	0.00035395
333	0.00035079
333.2	0.00034766
333.4	0.00034456
333.6	0.00034148
333.8	0.00033844
334	0.00033542
334.2	0.00033242
334.4	0.00032946
334.6	0.00032652
334.8	0.00032360
335	0.00032072
335.2	0.00031785
335.4	0.00031502
335.6	0.00031221
335.8	0.00031058
336	0.00031085
336.2	0.00031111
336.4	0.00031138
336.6	0.00031165
336.8	0.00031192
337	0.00031219
337.2	0.00031246
337.4	0.00031273
337.6	0.00031300
337.8	0.00031327
338	0.00031354
338.2	0.00031381
338.4	0.00031408
338.6	0.00031435
338.8	0.00031371
339	0.00030497
339.2	0.00029647
339.4	0.00028821
339.6	0.00028018
339.8	0.00027238
340	0.00026479
340.2	0.00025741
340.4	0.00025024
340.6	0.00024327
340.8	0.00023649
341	0.00022990
341.2	0.00022350
341.4	0.00021727
341.6	0.00021122
341.8	0.00020533
342	0.00020351
342.2	0.00020250
342.4	0.00020150
342.6	0.00020050
342.8	0.00019950
343	0.00019852
343.2	0.00019753
343.4	0.00019655
343.6	0.00019558
343.8	0.00019461
344	0.00019364
344.2	0.00019269
344.4	0.00019173
344.6	0.00019078
344.8	0.00018983
345	0.00018887
345.2	0.00018789
345.4	0.00018692
345.6	0.00018596
345.8	0.00018500
346	0.00018404
346.2	0.00018309
346.4	0.00018214
346.6	0.00018120
346.8	0.00018026
347	0.00017933
347.2	0.00017840
347.4	0.00017748
347.6	0.00017656
347.8	0.00017565
348	0.00017551
348.2	0.00017716
348.4	0.00017882
348.6	0.00018050
348.8	0.00018220
349	0.00018391
349.2	0.00018564
349.4	0.00018738
349.6	0.00018915
349.8	0.00019092
350	0.00019272
350.2	0.00019453
350.4	0.00019636
350.6	0.00019820
350.8	0.00020006
351	0.00020185
351.2	0.00020159
351.4	0.00020134
351.6	0.00020109
351.8	0.00020083
352	0.00020058
352.2	0.00020033
352.4	0.00020007
352.6	0.00019982
352.8	0.00019957
353	0.00019932
353.2	0.00019907
353.4	0.00019882
353.6	0.00019857
353.8	0.00019832
354	0.00019807
354.2	0.00019671
354.4	0.00019506
354.6	0.00019343
354.8	0.00019181
355	0.00019020
355.2	0.00018861
355.4	0.00018703
355.6	0.00018547
355.8	0.00018392
356	0.00018238
356.2	0.00018085
356.4	0.00017934
356.6	0.00017784
356.8	0.00017635
357	0.00017487
357.2	0.00017493
357.4	0.00017625
357.6	0.00017759
357.8	0.00017894
358	0.00018030
358.2	0.00018168
358.4	0.00018306
358.6	0.00018445
358.8	0.00018585
359	0.00018726
359.2	0.00018869
359.4	0.00019012
359.6	0.00019157
359.8	0.00019302
360	0.00019449
360.2	0.00019547
360.4	0.00019533
360.6	0.00019519
360.8	0.00019505
361	0.00019491
361.2	0.00019477
361.4	0.00019463
361.6	0.00019449
361.8	0.00019436
362	0.00019422
362.2	0.00019408
362.4	0.00019394
362.6	0.00019380
362.8	0.00019366
363	0.00019352
363.2	0.00018792
363.4	0.00012470
363.6	0.00008275
363.8	0.00005491
364	0.00003644
364.2	0.00002418
364.4	0.00001605
364.6	0.00001065
364.8	0.00000707
365	0.00000469
365.2	0.00000912
365.4	0.00000915
365.6	0.00000866
365.8	0.00000926
366	0.00000975
366.2	0.00000969
366.4	0.00000897
366.6	0.00000973
366.8	0.00000862
367	0.00000921
367.2	0.00000919
367.4	0.00000913
367.6	0.00000940
367.8	0.00000913
368	0.00000929
368.2	0.00000970
368.4	0.00000924
368.6	0.00000939
368.8	0.00000954
369	0.00000947
369.2	0.00000879
369.4	0.00000857
369.6	0.00000881
369.8	0.00000975
370	0.00000969
370.2	0.00000937
370.4	0.00000916
370.6	0.00000943
370.8	0.00000955
371	0.00000903
371.2	0.00000921
371.4	0.00000871
371.6	0.00000889
371.8	0.00000943
372	0.00000927
372.2	0.00000903
372.4	0.00000897
372.6	0.00000989
372.8	0.00000938
373	0.00000887
373.2	0.00000861
373.4	0.00000962
373.6	0.00000883
373.8	0.00000889
374	0.00000846
374.2	0.00000872
374.4	0.00000896
374.6	0.00000876
374.8	0.00000860
375	0.00000898
375.2	0.00000854
375.4	0.00000914
375.6	0.00000932
375.8	0.00000903
376	0.00000923
376.2	0.00000904
376.4	0.00000922
376.6	0.00000898
376.8	0.00000956
377	0.00000936
377.2	0.00000914
377.4	0.00000928
377.6	0.00000900
377.8	0.00001007
378	0.00000961
378.2	0.00000969
378.4	0.00000943
378.6	0.00000886
378.8	0.00000969
379	0.00001016
379.2	0.00001021
379.4	0.00000979
379.6	0.00000995
379.8	0.00001000
380	0.00000997
380.2	0.00000963
380.4	0.00000996
380.6	0.00000977
380.8	0.00000991
381	0.00000974
381.2	0.00000949
381.4	0.00000980
381.6	0.00000962
381.8	0.00000968
382	0.00000985
382.2	0.00000945
382.4	0.00000934
382.6	0.00000990
382.8	0.00000945
383	0.00001007
383.2	0.00000923
383.4	0.00000991
383.6	0.00000981
383.8	0.00000975
384	0.00001033
384.2	0.00001003
384.4	0.00000972
384.6	0.00001006
384.8	0.00000976
385	0.00001018
385.2	0.00000981
385.4	0.00000980
385.6	0.00001008
385.8	0.00000980
386	0.00000982
386.2	0.00000974
386.4	0.00000987
386.6	0.00001016
386.8	0.00000962
387	0.00001068
387.2	0.00001044
387.4	0.00000962
387.6	0.00000982
387.8	0.00000938
388	0.00001019
388.2	0.00000994
388.4	0.00000975
388.6	0.00001085
388.8	0.00001025
389	0.00001059
389.2	0.00001039
389.4	0.00001036
389.6	0.00001047
389.8	0.00001122
390	0.00001109
390.2	0.00001053
390.4	0.00001063
390.6	0.00001140
390.8	0.00001109
391	0.00001184
391.2	0.00001197
391.4	0.00001133
391.6	0.00001139
391.8	0.00001151
392	0.00001135
392.2	0.00001143
392.4	0.00001194
392.6	0.00001178
392.8	0.00001201
393	0.00001197
393.2	0.00001194
393.4	0.00001156
393.6	0.00001249
393.8	0.00001274
394	0.00001247
394.2	0.00001273
394.4	0.00001194
394.6	0.00001227
394.8	0.00001159
395	0.00001255
395.2	0.00001254
395.4	0.00001215
395.6	0.00001198
395.8	0.00001234
396	0.00001260
396.2	0.00001202
396.4	0.00001240
396.6	0.00001246
396.8	0.00001181
397	0.00001201
397.2	0.00001245
397.4	0.00001184
397.6	0.00001235
397.8	0.00001171
398	0.00001223
398.2	0.00001192
398.4	0.00001178
398.6	0.00001181
398.8	0.00001146
399	0.00001223
399.2	0.00001148
399.4	0.00001159
399.6	0.00001178
399.8	0.00001152
400	0.00070569
400.2	0.00040336
400.4	0.00059394
400.6	0.00059987
400.8	0.00060502
401	0.00050164
401.2	0.00064043
401.4	0.00054951
401.6	0.00054664
401.8	0.00062267
402	0.00068351
402.2	0.00066543
402.4	0.00048190
402.6	0.00050194
402.8	0.00060428
403	0.00059471
403.2	0.00038926
403.4	0.00054601
403.6	0.00033054
403.8	0.00046209
404	0.00065099
404.2	0.00065668
404.4	0.00060509
404.6	0.00054252
404.8	0.00029991
405	0.00079597
405.2	0.00057331
405.4	0.00026974
405.6	0.00051943
405.8	0.00034791
406	0.00045736
406.2	0.00067561
406.4	0.00048345
406.6	0.00051836
406.8	0.00019736
407	0.00054718
407.2	0.00054485
407.4	0.00046710
407.6	0.00063481
407.8	0.00034390
408	0.00028773
408.2	0.00074633
408.4	0.00063715
408.6	0.00059546
408.8	0.00049384
409	0.00043231
409.2	0.00061425
409.4	0.00044794
409.6	0.00048611
409.8	0.00059201
410	0.00043601
410.2	0.00061571
410.4	0.00054773
410.6	0.00031664
410.8	0.00047680
411	0.00053504
411.2	0.00055712
411.4	0.00043846
411.6	0.00071098
411.8	0.00057103
412	0.00066847
412.2	0.00041228
412.4	0.00040719
412.6	0.00043580
412.8	0.00051001
413	0.00032902
413.2	0.00056120
413.4	0.00056567
413.6	0.00064220
413.8	0.00052085
414	0.00071043
414.2	0.00044055
414.4	0.00049317
414.6	0.00082998
414.8	0.00054309
415	0.00040536
415.2	0.00050616
415.4	0.00060415
415.6	0.00048397
415.8	0.00063216
416	0.00056952
416.2	0.00045286
416.4	0.00051659
416.6	0.00071930
416.8	0.00063877
417	0.00044319
417.2	0.00064311
417.4	0.00058044
417.6	0.00075154
417.8	0.00040245
418	0.00027862
418.2	0.00067731
418.4	0.00045618
418.6	0.00061477
418.8	0.00054202
419	0.00043610
419.2	0.00047131
419.4	0.00054254
419.6	0.00064226
419.8	0.00043800
420	0.00057758
420.2	0.00038891
420.4	0.00048378
420.6	0.00044511
420.8	0.00073385
421	0.00064436
421.2	0.00061795
421.4	0.00045608
421.6	0.00053319
421.8	0.00051881
422	0.00049580
422.2	0.00076868
422.4	0.00062435
422.6	0.00081025
422.8	0.00047365
423	0.00047358
423.2	0.00083765
423.4	0.00063116
423.6	0.00046705
423.8	0.00056447
424	0.00065715
424.2	0.00054570
424.4	0.00060403
424.6	0.00057318
424.8	0.00059887
425	0.00056950
425.2	0.00085260
425.4	0.00071266
425.6	0.00050869
425.8	0.00070051
426	0.00047632
426.2	0.00050504
426.4	0.00061389
426.6	0.00069827
426.8	0.00065015
427	0.00060865
427.2	0.00067499
427.4	0.00054995
427.6	0.00055187
427.8	0.00045949
428	0.00093600
428.2	0.00069640
428.4	0.00068653
428.6	0.00060322
428.8	0.00067935
429	0.00070943
429.2	0.00061043
429.4	0.00076982
429.6	0.00053489
429.8	0.00069777
430	0.00068848
430.2	0.00070179
430.4	0.00060806
430.6	0.00037186
430.8	0.00091089
431	0.00064947
431.2	0.00056532
431.4	0.00070090
431.6	0.00053978
431.8	0.00085977
432	0.00089895
432.2	0.00073664
432.4	0.00064390
432.6	0.00059189
432.8	0.00080591
433	0.00076657
433.2	0.00077115
433.4	0.00065556
433.6	0.00106950
433.8	0.00059330
434	0.00079933
434.2	0.00067239
434.4	0.00079535
434.6	0.00071209
434.8	0.00088174
435	0.00000975
435.2	0.00002665
435.4	0.00000765
435.6	0.00000794
435.8	0.00001235
436	0.00001355
436.2	0.00000567
436.4	0.00000963
436.6	0.00001488
436.8	0.00000769
437	0.00000528
437.2	0.00000686
437.4	0.00001530
437.6	0.00000640
437.8	0.00000815
438	0.00000636
438.2	0.00000756
438.4	0.00001042
438.6	0.00001039
438.8	0.00001037
439	0.00001959
439.2	0.00001947
439.4	0.00001260
439.6	0.00000776
439.8	0.00000733
440	0.00003012
440.2	0.00000761
440.4	0.00000758
440.6	0.00001597
440.8	0.00002949
441	0.00002206
441.2	0.00001126
441.4	0.00003024
441.6	0.00002012
441.8	0.00001256
442	0.00001059
442.2	0.00001502
442.4	0.00002174
442.6	0.00000529
442.8	0.00001690
443	0.00001502
443.2	0.00001139
443.4	0.00001283
443.6	0.00000565
443.8	0.00000563
444	0.00002600
444.2	0.00000982
444.4	0.00000790
444.6	0.00001565
444.8	0.00001927
445	0.00001021
445.2	0.00000506
445.4	0.00001100
445.6	0.00000808
445.8	0.00000483
446	0.00000521
446.2	0.00000898
446.4	0.00000754
446.6	0.00001880
446.8	0.00001731
447	0.00001205
447.2	0.00000821
447.4	0.00000473
447.6	0.00001684
447.8	0.00001138
448	0.00001620
448.2	0.00001801
448.4	0.00001530
448.6	0.00001745
448.8	0.00001005
449	0.00001720
449.2	0.00002274
449.4	0.00001774
449.6	0.00001538
449.8	0.00002010
450	0.00003114
450.2	0.00002489
450.4	0.00002273
450.6	0.00002277
450.8	0.00002427
451	0.00002823
451.2	0.00002938
451.4	0.00001087
451.6	0.00001981
451.8	0.00002454
452	0.00001956
452.2	0.00002918
452.4	0.00005025
452.6	0.00006062
452.8	0.00006473
453	0.00008485
453.2	0.00011727
453.4	0.00014480
453.6	0.00021105
453.8	0.00027805
454	0.00043334
454.2	0.00066165
454.4	0.00109700
454.6	0.00194890
454.8	0.00327340
455	0.00804690
455.2	0.01760500
455.4	0.02990700
455.6	0.05379000
455.8	0.10600000
456	0.22600000
456.2	0.51200000
456.4	1.23000000
456.6	2.93600000
456.8	7.65700000
457	20.09400000
457.2	44.77500000
457.4	72.55500000
457.6	87.08400000
457.8	91.27700000
458	92.80900000
458.2	93.25700000
458.4	93.58000000
458.6	93.83000000
458.8	94.05900000
459	94.15400000
459.2	94.27700000
459.4	94.30300000
459.6	94.31800000
459.8	94.20900000
460	94.16600000
460.2	94.12500000
460.4	94.25500000
460.6	94.25500000
460.8	94.44900000
461	94.46400000
461.2	94.46800000
461.4	94.44900000
461.6	94.42800000
461.8	94.24600000
462	94.18000000
462.2	94.12000000
462.4	94.14100000
462.6	94.22000000
462.8	94.32400000
463	94.48200000
463.2	94.61400000
463.4	94.67900000
463.6	94.85000000
463.8	94.89400000
464	94.96100000
464.2	94.81500000
464.4	94.83900000
464.6	94.81600000
464.8	94.77800000
465	94.62600000
465.2	94.51100000
465.4	94.47200000
465.6	94.43400000
465.8	94.39000000
466	94.34200000
466.2	94.34300000
466.4	94.33000000
466.6	94.41400000
466.8	94.44900000
467	94.50700000
467.2	94.64800000
467.4	94.66800000
467.6	94.79700000
467.8	94.95500000
468	94.98900000
468.2	95.05500000
468.4	95.03300000
468.6	95.06900000
468.8	95.05200000
469	95.06300000
469.2	94.98600000
469.4	95.03600000
469.6	95.03700000
469.8	94.97500000
470	95.04900000
470.2	95.10900000
470.4	95.02000000
470.6	95.07200000
470.8	95.13900000
471	95.13700000
471.2	95.16100000
471.4	95.18800000
471.6	95.22600000
471.8	95.17900000
472	95.14300000
472.2	95.08600000
472.4	95.08100000
472.6	95.05500000
472.8	95.16600000
473	95.12500000
473.2	95.17100000
473.4	95.19300000
473.6	95.27600000
473.8	95.27300000
474	95.26900000
474.2	95.21800000
474.4	95.24200000
474.6	95.17200000
474.8	95.19400000
475	95.07200000
475.2	94.93600000
475.4	94.87100000
475.6	94.81200000
475.8	94.81500000
476	94.73100000
476.2	94.79700000
476.4	94.74000000
476.6	94.65000000
476.8	94.65500000
477	94.64100000
477.2	94.54100000
477.4	94.56600000
477.6	94.50700000
477.8	94.46000000
478	94.34400000
478.2	94.29900000
478.4	94.21400000
478.6	94.23100000
478.8	94.24800000
479	94.23000000
479.2	94.31800000
479.4	94.45000000
479.6	94.45800000
479.8	94.71200000
480	94.75600000
480.2	94.94300000
480.4	94.95500000
480.6	95.05200000
480.8	94.95400000
481	95.00500000
481.2	94.84100000
481.4	94.72400000
481.6	94.58600000
481.8	94.36100000
482	94.29500000
482.2	94.13800000
482.4	94.06300000
482.6	94.02600000
482.8	94.10900000
483	94.10600000
483.2	94.21300000
483.4	94.48800000
483.6	94.64000000
483.8	94.78400000
484	94.92100000
484.2	95.00700000
484.4	95.18200000
484.6	95.15400000
484.8	95.18200000
485	95.04500000
485.2	94.95100000
485.4	94.95100000
485.6	94.83800000
485.8	94.75500000
486	94.74300000
486.2	94.71000000
486.4	94.74000000
486.6	94.76300000
486.8	94.81200000
487	94.90400000
487.2	95.00900000
487.4	95.11600000
487.6	95.03600000
487.8	95.07400000
488	95.09200000
488.2	94.89600000
488.4	94.76500000
488.6	94.68600000
488.8	94.48300000
489	94.39900000
489.2	94.29400000
489.4	94.31200000
489.6	94.26800000
489.8	94.36400000
490	94.45500000
490.2	94.54500000
490.4	94.71200000
490.6	94.86500000
490.8	94.97100000
491	95.10700000
491.2	95.05600000
491.4	95.00200000
491.6	94.86700000
491.8	94.65700000
492	94.44800000
492.2	94.16300000
492.4	93.93200000
492.6	93.77000000
492.8	93.62000000
493	93.56100000
493.2	93.58000000
493.4	93.66000000
493.6	93.82000000
493.8	93.95100000
494	94.03400000
494.2	94.15000000
494.4	94.24000000
494.6	94.21000000
494.8	94.13600000
495	93.92000000
495.2	93.78600000
495.4	93.58900000
495.6	93.43600000
495.8	93.36300000
496	93.27800000
496.2	93.35800000
496.4	93.37900000
496.6	93.47800000
496.8	93.65200000
497	93.75000000
497.2	93.80800000
497.4	93.87900000
497.6	93.86100000
497.8	93.76200000
498	93.64900000
498.2	93.49900000
498.4	93.35400000
498.6	93.16500000
498.8	92.95200000
499	92.70500000
499.2	92.48500000
499.4	92.32800000
499.6	92.48000000
499.8	93.01500000
500	93.79500000
500.2	93.74000000
500.4	90.01300000
500.6	76.04200000
500.8	55.69900000
501	35.18300000
501.2	20.09700000
501.4	11.14500000
501.6	6.27500000
501.8	3.65100000
502	1.99700000
502.2	1.17400000
502.4	0.71900000
502.6	0.45600000
502.8	0.29200000
503	0.19500000
503.2	0.13100000
503.4	0.08861700
503.6	0.05839600
503.8	0.04112200
504	0.02951200
504.2	0.02130300
504.4	0.01566800
504.6	0.01161400
504.8	0.00866250
505	0.00643750
505.2	0.00493480
505.4	0.00380600
505.6	0.00296160
505.8	0.00234110
506	0.00188140
506.2	0.00145990
506.4	0.00114800
506.6	0.00092243
506.8	0.00075415
507	0.00062583
507.2	0.00052422
507.4	0.00044813
507.6	0.00036782
