Wavelength(nm)	%_Transmission 	%_Reflectance
250	0.76742	2.05727
251	0.39204	2.00815
252	0.48611	2.0217
253	0.59766	2.04694
254	0.71037	2.02796
255	0.44625	2.7657
256	0.42745	2.78288
257	0.51948	3.11525
258	0.4911	3.43259
259	0.60456	4.40384
260	0.80913	5.1324
261	0.63001	6.00696
262	0.47363	7.55315
263	0.5988	9.06268
264	0.23056	10.81445
265	0.4302	12.62663
266	0.47046	14.56068
267	0.60818	16.73342
268	0.29694	19.95023
269	0.44758	23.3188
270	0.38646	27.33682
271	0.45645	31.7036
272	0.55568	36.42366
273	0.77906	41.00941
274	0.3569	45.79024
275	0.6584	49.7712
276	0.38011	53.2903
277	0.56627	55.79907
278	1.25697	56.75089
279	0.63658	56.80415
280	0.65125	55.48585
281	0.57212	52.19519
282	0.49129	49.04598
283	0.57568	44.55569
284	0.79913	41.06455
285	0.4252	38.74326
286	0.31112	37.67776
287	0.47981	38.43397
288	0.68344	42.12848
289	0.88308	47.28444
290	1.36087	53.50534
291	1.24654	60.37383
292	1.12446	66.13284
293	0.95596	71.71112
294	1.08406	76.32066
295	1.36561	80.41499
296	1.32192	83.51625
297	1.68557	84.56577
298	2.18133	84.9782
299	2.54348	84.39101
300	3.03521	83.85346
301	3.32031	83.77404
302	3.74902	83.94801
303	4.95385	83.36726
304	5.56917	82.07168
305	7.10888	79.75966
306	9.85107	77.40101
307	11.57576	75.53437
308	12.68631	74.51342
309	13.91802	73.63171
310	16.25063	72.68347
311	17.92904	70.23337
312	21.51597	66.28219
313	25.62203	60.78031
314	30.0771	56.1385
315	33.08623	52.99905
316	33.78391	52.337
317	32.98331	55.34064
318	29.77191	60.07179
319	26.48229	64.56554
320	23.61276	68.97843
321	23.69286	69.59503
322	25.01695	68.41529
323	26.58862	66.81929
324	27.21508	65.62027
325	27.3377	66.35216
326	26.05335	67.48461
327	24.94707	69.0782
328	24.90917	69.34937
329	26.50139	67.73679
330	30.43339	64.26283
331	34.44891	59.41748
332	38.07806	56.0926
333	40.34206	54.06341
334	40.85034	53.68906
335	40.5894	54.23524
336	40.41855	54.61836
337	40.73042	54.69631
338	40.67303	54.65856
339	40.00019	55.22543
340	38.5049	57.26063
341	35.90031	60.44176
342	32.8113	64.06543
343	29.97375	67.17503
344	28.19059	69.02951
345	27.89958	69.37805
346	29.37027	67.86812
347	32.25531	64.91144
348	35.49896	61.28365
349	39.0843	57.4016
350	42.04423	54.1993
351	43.66506	52.79159
352	43.21045	53.18754
353	40.42272	55.58574
354	35.98583	60.45071
355	30.20537	66.63272
356	24.03687	73.37599
357	18.03764	79.79961
358	13.24283	85.05319
359	10.05992	88.42837
360	7.76501	90.72748
361	6.59368	92.23184
362	5.57596	93.58677
363	4.4516	94.83394
364	3.26099	96.10623
365	2.05424	97.32667
366	1.1015	98.14353
367	0.63646	98.69272
368	0.42006	98.99114
369	0.27133	99.01548
370	0.31662	99.01819
371	0.37371	98.76193
372	0.47947	98.75097
373	0.58814	98.56327
374	0.64576	98.33968
375	0.89229	98.17263
376	1.09848	97.82905
377	1.25207	97.58141
378	1.3328	97.52949
379	1.30035	97.53075
380	1.24869	97.67039
381	1.16508	97.83465
382	0.97884	98.05953
383	0.84421	98.14065
384	0.83022	98.16757
385	0.77708	98.21135
386	0.8166	98.15053
387	0.80604	98.07355
388	0.80297	98.01601
389	0.73247	97.97144
390	0.72099	97.97163
391	0.65668	98.01105
392	0.63929	98.0666
393	0.61049	98.20453
394	0.57901	98.29064
395	0.55633	98.32524
396	0.55984	98.34185
397	0.52936	98.29248
398	0.53205	98.26358
399	0.50638	98.28986
400	0.43549	98.36311
401	0.44811	98.4906
402	0.36727	98.67031
403	0.32729	98.78836
404	0.32303	98.87323
405	0.30112	98.90812
406	0.32566	98.8909
407	0.34138	98.75641
408	0.36267	98.67826
409	0.38732	98.57322
410	0.38399	98.57362
411	0.40621	98.54621
412	0.39532	98.59157
413	0.38748	98.72265
414	0.36236	98.74529
415	0.37978	98.76081
416	0.42222	98.72964
417	0.40525	98.61002
418	0.44252	98.55494
419	0.47115	98.47231
420	0.47765	98.48777
421	0.43261	98.58182
422	0.38859	98.69588
423	0.33995	98.84716
424	0.27536	99.04047
425	0.23054	99.21762
426	0.19138	99.28149
427	0.17075	99.31629
428	0.15838	99.26131
429	0.1858	99.16578
430	0.19225	99.05284
431	0.2227	98.94811
432	0.24048	98.91236
433	0.27872	98.86538
434	0.29051	98.85379
435	0.29783	98.90554
436	0.28103	98.94183
437	0.25589	99.03169
438	0.23364	99.04468
439	0.21578	99.04719
440	0.21533	99.02846
441	0.21092	98.98598
442	0.23665	98.96233
443	0.25888	98.91078
444	0.31122	98.86801
445	0.34512	98.85613
446	0.36971	98.9002
447	0.34931	98.97742
448	0.31806	99.09261
449	0.28094	99.17415
450	0.21928	99.30159
451	0.16638	99.43477
452	0.12475	99.53484
453	0.07193	99.5956
454	0.05293	99.64161
455	0.04779	99.66841
456	0.02711	99.70669
457	0.0361	99.70836
458	0.02772	99.69079
459	0.02922	99.70133
460	0.03099	99.70291
461	0.03653	99.71695
462	0.04226	99.70763
463	0.04873	99.6809
464	0.07126	99.67249
465	0.10548	99.64711
466	0.13129	99.61622
467	0.16759	99.5718
468	0.22287	99.51463
469	0.26701	99.48787
470	0.28878	99.46
471	0.32242	99.4411
472	0.33644	99.41532
473	0.33768	99.4037
474	0.33598	99.42056
475	0.30481	99.44896
476	0.28002	99.47157
477	0.25153	99.48903
478	0.21825	99.53259
479	0.18135	99.5725
480	0.1664	99.60175
481	0.15038	99.60451
482	0.14938	99.58117
483	0.15175	99.58289
484	0.18327	99.55284
485	0.21305	99.51851
486	0.27541	99.43963
487	0.35213	99.354
488	0.47075	99.2456
489	0.64793	99.06267
490	0.94175	98.7611
491	1.40754	98.28149
492	2.19725	97.48504
493	3.47118	96.22522
494	5.2955	94.35658
495	7.84045	91.76919
496	11.04046	88.54863
497	14.73603	84.83924
498	18.78088	80.79114
499	22.95807	76.62446
500	27.16207	72.43143
501	31.28701	68.3317
502	35.11427	64.57385
503	38.55316	61.17683
504	41.46897	58.28505
505	43.82041	55.9567
506	45.70805	54.09432
507	47.34939	52.46512
508	49.0512	50.76018
509	51.05618	48.76968
510	53.44042	46.37556
511	56.32409	43.49619
512	59.64682	40.21651
513	63.25839	36.6062
514	67.0858	32.77797
515	71.04126	28.8278
516	74.98113	24.89837
517	78.83138	21.05412
518	82.4035	17.50286
519	85.66868	14.215
520	90.56649	8.31709
521	90.96645	7.9109
522	92.86819	7.00619
523	94.27152	5.59505
524	95.22702	4.63698
525	95.85295	4.0248
526	96.23235	3.65492
527	96.48498	3.4017
528	96.69913	3.1842
529	96.89915	2.9951
530	97.08862	2.80118
531	97.28395	2.60962
532	97.45934	2.4291
533	97.58673	2.27982
534	97.71906	2.15462
535	97.81652	2.06805
536	97.90663	1.9852
537	97.96788	1.9153
538	98.04124	1.84398
539	98.12181	1.76679
540	98.18623	1.69531
541	98.26083	1.62807
542	98.31152	1.58433
543	98.33313	1.55611
544	98.33672	1.5666
545	98.29502	1.59164
546	98.249	1.64352
547	98.1613	1.71287
548	98.07763	1.79448
549	98.02302	1.86629
550	97.95752	1.91589
551	97.9325	1.9504
552	97.92288	1.95104
553	97.9422	1.93121
554	98.00082	1.8897
555	98.05739	1.82635
556	98.12578	1.75192
557	98.19886	1.68106
558	98.27	1.61767
559	98.32129	1.56604
560	98.35078	1.53042
561	98.37712	1.50815
562	98.37675	1.49378
563	98.37605	1.50612
564	98.35921	1.51929
565	98.34104	1.54832
566	98.30045	1.56282
567	98.30875	1.5803
568	98.29565	1.57941
569	98.27653	1.59125
570	98.30405	1.58043
571	98.30292	1.57567
572	98.30417	1.56837
573	98.307	1.57413
574	98.3038	1.57432
575	98.28846	1.58725
576	98.27957	1.61097
577	98.24086	1.64433
578	98.19709	1.68612
579	98.14564	1.7281
580	98.08186	1.77967
581	98.04221	1.83534
582	97.98281	1.88926
583	97.93692	1.93879
584	97.89541	1.97899
585	97.86304	2.00509
586	97.85246	2.02327
587	97.8256	2.02705
588	97.84632	2.01215
589	97.86165	2.00183
590	97.88717	1.9744
591	97.91446	1.94191
592	97.9557	1.90646
593	97.98229	1.87531
594	98.02551	1.83391
595	98.06673	1.79826
596	98.09253	1.76446
597	98.12837	1.73214
598	98.15445	1.69364
599	98.1855	1.66687
600	98.21088	1.64392
601	98.24176	1.61645
602	98.26547	1.58743
603	98.30206	1.55902
604	98.31935	1.53929
605	98.36026	1.50814
606	98.38623	1.47587
607	98.41789	1.44861
608	98.45807	1.41075
609	98.49475	1.39218
610	98.5174	1.3538
611	98.54628	1.32451
612	98.58596	1.29307
613	98.61593	1.2664
614	98.64001	1.23284
615	98.66213	1.21521
616	98.67295	1.20419
617	98.68969	1.18948
618	98.70963	1.16726
619	98.7107	1.1601
620	98.72816	1.15469
621	98.74153	1.14787
622	98.74187	1.14674
623	98.75243	1.14129
624	98.7491	1.14051
625	98.75565	1.13668
626	98.74185	1.14264
627	98.74821	1.13958
628	98.7399	1.14429
629	98.7467	1.14909
630	98.72659	1.16038
631	98.72413	1.17046
632	98.70212	1.18381
633	98.69712	1.19583
634	98.67949	1.21679
635	98.67414	1.22746
636	98.64327	1.24814
637	98.63366	1.26272
638	98.60596	1.28043
639	98.59093	1.29568
640	98.5854	1.3109
641	98.57236	1.32428
642	98.55792	1.33802
643	98.54966	1.35575
644	98.53867	1.35425
645	98.53945	1.36098
646	98.53756	1.37013
647	98.53792	1.3603
648	98.5336	1.36155
649	98.54178	1.36648
650	98.55054	1.3594
651	98.55359	1.3493
652	98.57438	1.34709
653	98.55663	1.34318
654	98.57787	1.344
655	98.58216	1.34258
656	98.58542	1.33966
657	98.588	1.34251
658	98.58246	1.3373
659	98.58358	1.3395
660	98.57386	1.34147
661	98.5866	1.33111
662	98.58554	1.33624
663	98.58304	1.33966
664	98.60095	1.32861
665	98.59543	1.32469
666	98.60406	1.32811
667	98.61304	1.31278
668	98.62146	1.31178
669	98.63892	1.29419
670	98.65894	1.28761
671	98.65967	1.26862
672	98.67438	1.26442
673	98.67149	1.25418
674	98.70241	1.23408
675	98.7176	1.22641
676	98.72543	1.21789
677	98.72971	1.19859
678	98.74161	1.19435
679	98.75042	1.18563
680	98.76141	1.18959
681	98.7631	1.17979
682	98.76077	1.17743
683	98.76287	1.17865
684	98.75746	1.18138
685	98.77821	1.18876
686	98.74982	1.1971
687	98.73573	1.20317
688	98.75549	1.20687
689	98.74011	1.20995
690	98.72608	1.22262
691	98.72382	1.23185
692	98.73114	1.23177
693	98.71889	1.23089
694	98.72739	1.22652
695	98.71433	1.23096
696	98.71542	1.23594
697	98.73843	1.22727
698	98.73719	1.22075
699	98.75695	1.21077
700	98.74155	1.20578
701	98.74986	1.2049
702	98.76632	1.20038
703	98.76765	1.20469
704	98.76001	1.20055
705	98.76157	1.18842
706	98.77702	1.18785
707	98.75624	1.19156
708	98.75865	1.1913
709	98.75052	1.19527
710	98.75751	1.18991
711	98.73549	1.19697
712	98.73295	1.21708
713	98.73815	1.22921
714	98.72376	1.23051
715	98.70346	1.25026
716	98.69973	1.23963
717	98.69588	1.2516
718	98.68823	1.2635
719	98.687	1.26657
720	98.70695	1.28989
721	98.71224	1.28367
722	98.70773	1.28382
723	98.71838	1.27448
724	98.72473	1.27125
725	98.72157	1.26076
726	98.74794	1.25042
727	98.76759	1.22781
728	98.784	1.21279
729	98.78082	1.20415
730	98.8165	1.17185
731	98.82891	1.16875
732	98.85375	1.1353
733	98.86718	1.12426
734	98.88596	1.1105
735	98.89488	1.08968
736	98.9271	1.07165
737	98.93001	1.05576
738	98.95995	1.04075
739	98.96691	1.03211
740	98.99075	1.02395
741	98.98748	1.02581
742	98.97639	1.01738
743	98.97996	1.02052
744	98.99768	1.0134
745	98.98659	1.01478
746	98.98876	1.01813
747	98.96949	1.02172
748	98.96077	1.02993
749	98.94442	1.0461
750	98.94682	1.04831
751	98.9581	1.05671
752	98.93694	1.06419
753	98.93335	1.07677
754	98.91137	1.08116
755	98.91847	1.09934
756	98.91209	1.10138
757	98.90165	1.10247
758	98.88977	1.10803
759	98.89889	1.11439
760	98.87719	1.12147
761	98.87001	1.11581
762	98.85252	1.1295
763	98.87535	1.13698
764	98.88617	1.12764
765	98.85943	1.134
766	98.8659	1.13588
767	98.87042	1.13906
768	98.84979	1.14142
769	98.86197	1.15172
770	98.85304	1.14036
771	98.84669	1.1535
772	98.8434	1.14792
773	98.84169	1.15067
774	98.84251	1.16743
775	98.82912	1.16932
776	98.81422	1.17164
777	98.82623	1.17926
778	98.81332	1.18664
779	98.80323	1.18088
780	98.81274	1.19403
781	98.80573	1.19229
782	98.80542	1.19692
783	98.78773	1.20521
784	98.78631	1.20724
785	98.78416	1.21469
786	98.77366	1.22083
787	98.76501	1.22722
788	98.76884	1.22606
789	98.75777	1.23796
790	98.7578	1.2457
791	98.75215	1.25144
792	98.75142	1.25701
793	98.72482	1.26363
794	98.71445	1.28333
795	98.70815	1.29407
796	98.69541	1.29982
797	98.68491	1.31151
798	98.67087	1.33326
799	98.64439	1.34492
800	98.63091	1.36194
801	98.6029	1.37896
802	98.60102	1.41109
803	98.57797	1.42613
804	98.55045	1.45787
805	98.52332	1.47527
806	98.48492	1.50449
807	98.46829	1.52664
808	98.44463	1.56582
809	98.41066	1.59302
810	98.38715	1.63001
811	98.33043	1.66971
812	98.2932	1.71179
813	98.23156	1.77042
814	98.18334	1.81797
815	98.1144	1.88333
816	98.05324	1.95424
817	97.97333	2.03727
818	97.88377	2.1224
819	97.77963	2.22653
820	97.64162	2.34933
821	97.52681	2.47763
822	97.36948	2.6228
823	97.2021	2.79724
824	97.01394	2.98837
825	96.80302	3.2005
826	96.5806	3.4372
827	96.29781	3.68997
828	96.01842	3.97414
829	95.69964	4.29104
830	95.3425	4.64523
831	94.96041	5.01669
832	94.57339	5.42635
833	94.11976	5.86615
834	93.65714	6.3233
835	93.16141	6.82882
836	92.59922	7.37497
837	92.0489	7.94066
838	91.46231	8.52575
839	90.8263	9.15209
840	90.15333	9.8145
841	89.49105	10.47305
842	88.75497	11.20157
843	88.01331	11.94097
844	87.28963	12.66581
845	86.5126	13.45302
846	85.70232	14.25461
847	84.89028	15.05262
848	84.0364	15.90235
849	83.16529	16.78443
850	82.31524	17.62502
851	81.42516	18.52353
852	80.50148	19.44579
853	79.59578	20.34657
854	78.65738	21.2902
855	77.6771	22.27615
856	76.70586	23.24784
857	75.70323	24.23089
858	74.69829	25.24981
859	73.63331	26.30526
860	72.59572	27.33468
861	71.48427	28.45812
862	70.35862	29.58326
863	69.2476	30.68252
864	68.08031	31.86093
865	66.87434	33.05619
866	65.6866	34.2483
867	64.42604	35.49595
868	63.13114	36.80925
869	61.87043	38.05275
870	60.56812	39.35455
871	59.20502	40.71752
872	57.87984	42.03033
873	56.49728	43.41362
874	55.0874	44.83328
875	53.7143	46.2013
876	52.33204	47.6004
877	50.92148	48.98855
878	49.50179	50.40725
879	48.142	51.75267
880	46.71557	53.18113
881	45.3468	54.55826
882	44.02355	55.87063
883	42.6901	57.2061
884	41.36926	58.53373
885	40.09885	59.77534
886	38.85083	61.04636
887	37.60237	62.28731
888	36.44938	63.42845
889	35.31156	64.57965
890	34.18823	65.70601
891	33.15335	66.74309
892	32.11339	67.77123
893	31.11395	68.77584
894	30.18375	69.70331
895	29.29273	70.57859
896	28.4307	71.45403
897	27.61488	72.249
898	26.85611	73.01379
899	26.10631	73.77149
900	25.41646	74.45841
901	24.77471	75.10588
902	24.15842	75.72703
903	23.57548	76.30808
904	23.03897	76.83308
905	22.52811	77.36049
906	22.04595	77.84188
907	21.62	78.26646
908	21.2078	78.68194
909	20.82509	79.0638
910	20.48347	79.3948
911	20.1604	79.71596
912	19.86106	80.01855
913	19.59897	80.27493
914	19.36041	80.5171
915	19.14312	80.72945
916	18.9537	80.92807
917	18.78964	81.08757
918	18.64225	81.23407
919	18.52229	81.36086
920	18.42579	81.45556
921	18.34999	81.53001
922	18.29291	81.57862
923	18.25974	81.62094
924	18.24421	81.62907
925	18.2523	81.62574
926	18.27573	81.60057
927	18.32292	81.55234
928	18.39224	81.48644
929	18.47118	81.41202
930	18.57695	81.30652
931	18.70277	81.17033
932	18.84291	81.04713
933	19.00094	80.88105
934	19.18501	80.69703
935	19.38338	80.49653
936	19.59764	80.28016
937	19.84284	80.0476
938	20.10299	79.79188
939	20.36691	79.50674
940	20.65998	79.21509
941	20.96981	78.90597
942	21.29783	78.59551
943	21.64577	78.22894
944	22.02302	77.85169
945	22.39448	77.48612
946	22.79653	77.09029
947	23.22057	76.66412
948	23.64087	76.24081
949	24.09806	75.77804
950	24.57645	75.30762
951	25.04378	74.8462
952	25.53697	74.34599
953	26.04799	73.83635
954	26.57398	73.30311
955	27.09668	72.78584
956	27.65822	72.22986
957	28.21653	71.679
958	28.76911	71.11796
959	29.3489	70.54688
960	29.92815	69.95335
961	30.50193	69.37949
962	31.11287	68.79797
963	31.71725	68.1785
964	32.30181	67.60336
965	32.90497	67.00685
966	33.52734	66.38331
967	34.11409	65.80811
968	34.71674	65.18273
969	35.33066	64.58111
970	35.91145	64.00671
971	36.50956	63.41676
972	37.09209	62.819
973	37.67709	62.24686
974	38.24742	61.69133
975	38.83484	61.10199
976	39.38384	60.54826
977	39.92588	60.00775
978	40.47912	59.46238
979	41.01586	58.93027
980	41.53911	58.40603
981	42.0673	57.87668
982	42.58186	57.36244
983	43.07481	56.86758
984	43.57799	56.37292
985	44.08353	55.87812
986	44.55157	55.39604
987	45.04214	54.89627
988	45.54407	54.42405
989	46.00245	53.95432
990	46.47927	53.47862
991	46.95683	53.00264
992	47.42402	52.53418
993	47.90143	52.05034
994	48.40649	51.55887
995	48.88849	51.08548
996	49.36935	50.58363
997	49.87842	50.08108
998	50.38723	49.57399
999	50.90828	49.06738
1000	51.4466	48.51344
1001	52.00707	47.9619
1002	52.54694	47.42401
1003	53.12788	46.85125
1004	53.72185	46.25539
1005	54.29634	45.66716
1006	54.93633	45.0432
1007	55.58375	44.39323
1008	56.20533	43.77763
1009	56.87507	43.10288
1010	57.56898	42.42254
1011	58.23519	41.74156
1012	58.93802	41.0456
1013	59.68937	40.30786
1014	60.41194	39.59224
1015	61.13712	38.85831
1016	61.88822	38.10928
1017	62.6307	37.36868
1018	63.38333	36.61816
1019	64.16252	35.84199
1020	64.9341	35.07317
1021	65.66011	34.33693
1022	66.41553	33.58229
1023	67.18619	32.83503
1024	67.89126	32.12364
1025	68.60511	31.40026
1026	69.31699	30.6984
1027	69.95983	30.05414
1028	70.6067	29.40953
1029	71.21938	28.80288
1030	71.77005	28.24913
1031	72.29467	27.72527
1032	72.77648	27.23376
1033	73.19908	26.8229
1034	73.55174	26.45728
1035	73.86964	26.14747
1036	74.11141	25.90154
1037	74.29399	25.72225
1038	74.405	25.6106
1039	74.44891	25.5657
1040	74.40181	25.5923
1041	74.32973	25.69074
1042	74.13963	25.86148
1043	73.91055	26.09264
1044	73.58122	26.40396
1045	73.19652	26.78958
1046	72.78413	27.21122
1047	72.28622	27.71032
1048	71.73016	28.25725
1049	71.14075	28.83798
1050	69.82178	30.03062
1051	69.13394	30.7057
1052	68.46876	31.38948
1053	67.74408	32.09373
1054	66.9938	32.84515
1055	66.2495	33.58939
1056	65.47252	34.36028
1057	64.68498	35.14789
1058	63.90444	35.9399
1059	63.13209	36.6915
1060	62.36497	37.47496
1061	61.57102	38.25419
1062	60.83771	38.9828
1063	60.0683	39.75407
1064	59.33082	40.49873
1065	58.63699	41.19004
1066	57.93797	41.88804
1067	57.2511	42.5654
1068	56.62212	43.20995
1069	55.99056	43.82745
1070	55.37373	44.44744
1071	54.8199	45.01061
1072	54.26237	45.5511
1073	53.7429	46.07391
1074	53.253	46.5675
1075	52.78368	47.0369
1076	52.32734	47.49419
1077	51.91244	47.91843
1078	51.52057	48.31284
1079	51.1403	48.68282
1080	50.78394	49.03542
1081	50.47407	49.35342
1082	50.14346	49.66882
1083	49.86394	49.96927
1084	49.60391	50.23928
1085	49.34991	50.48572
1086	49.11724	50.73194
1087	48.90902	50.93884
1088	48.70447	51.13048
1089	48.50536	51.32129
1090	48.34451	51.471
1091	48.18957	51.64175
1092	48.0314	51.78664
1093	47.89854	51.91711
1094	47.78722	52.0288
1095	47.64874	52.17145
1096	47.57203	52.25214
1097	47.45368	52.39019
1098	47.37657	52.43528
1099	47.28445	52.55337
1100	47.21507	52.60753
1101	47.14024	52.72021
1102	47.06986	52.7482
1103	47.0001	52.84347
1104	46.92529	52.89871
1105	46.88681	52.95849
1106	46.80996	53.02231
1107	46.77731	53.07074
1108	46.71182	53.16619
1109	46.61104	53.17859
1110	46.61366	53.2501
1111	46.54951	53.34125
1112	46.4769	53.33208
1113	46.37864	53.41405
1114	46.38746	53.50655
1115	46.31323	53.55275
1116	46.22803	53.5863
1117	46.18297	53.62376
1118	46.14011	53.73743
1119	46.06624	53.79277
1120	46.00762	53.84637
1121	45.93513	53.93113
1122	45.866	53.96749
1123	45.79446	54.04347
1124	45.74878	54.10623
1125	45.66363	54.17633
1126	45.6131	54.23498
1127	45.52958	54.31354
1128	45.46176	54.36543
1129	45.43662	54.43568
1130	45.33797	54.48672
1131	45.28507	54.5285
1132	45.25947	54.61481
1133	45.17679	54.67497
1134	45.15796	54.71201
1135	45.09267	54.7529
1136	45.06224	54.80072
1137	45.00568	54.83461
1138	45.00002	54.87139
1139	44.95864	54.88762
1140	44.94294	54.90156
1141	44.90921	54.9069
1142	44.93318	54.95068
1143	44.93819	54.91812
1144	44.94762	54.8908
1145	44.95338	54.89811
1146	45.00574	54.86113
1147	45.05829	54.79688
1148	45.07889	54.77374
1149	45.15402	54.70556
1150	45.236	54.6083
1151	45.29291	54.57132
1152	45.43098	54.45795
1153	45.53286	54.34494
1154	45.62818	54.23656
1155	45.76301	54.09035
1156	45.90851	53.9415
1157	46.07912	53.78683
1158	46.26801	53.61614
1159	46.41924	53.41484
1160	46.63651	53.22173
1161	46.86419	53.01165
1162	47.12133	52.81322
1163	47.31138	52.49315
1164	47.5969	52.26842
1165	47.88861	51.98874
1166	48.18401	51.70851
1167	48.47929	51.37901
1168	48.81555	51.0643
1169	49.14536	50.72739
1170	49.51605	50.36609
1171	49.90107	49.99519
1172	50.27201	49.60806
1173	50.68197	49.20632
1174	51.1105	48.76978
1175	51.55611	48.33689
1176	52.01752	47.8907
1177	52.49538	47.40833
1178	52.97973	46.91611
1179	53.50891	46.4356
1180	54.00565	45.86978
1181	54.53176	45.3492
1182	55.09792	44.81191
